          Index              t             Ts          Value
                           [s]         [degC]           [mW]
              0              0        9.99191              0
             21             21        10.3383              0
             42             42        10.6892              0
             63             63          11.04              0
             84             84        11.3906              0
            105            105        11.7412              0
            126            126        12.0916              0
            147            147        12.4421              0
            168            168        12.7925              0
            189            189        13.1429              0
            210            210        13.4933              0
            231            231        13.8436              0
            252            252        14.1939              0
            273            273        14.5442              0
            294            294        14.8945              0
            315            315        15.2447              0
            336            336        15.5949              0
            357            357        15.9452              0
            378            378        16.2954              0
            399            399        16.6456              0
            420            420        16.9957              0
            441            441        17.3459              0
            462            462        17.6961              0
            483            483        18.0462              0
            504            504        18.3964              0
            525            525        18.7465              0
            546            546        19.0966              0
            567            567        19.4468              0
            588            588        19.7969              0
            609            609         20.147              0
            630            630        20.4971              0
            651            651        20.8472              0
            672            672        21.1973              0
            693            693        21.5474              0
            714            714        21.8975              0
            735            735        22.2476              0
            756            756        22.5977              0
            777            777        22.9477              0
            798            798        23.2978              0
            819            819        23.6479              0
            840            840        23.9979              0
            861            861         24.348              0
            882            882         24.698              0
            903            903        25.0481              0
            924            924        25.3982              0
            945            945        25.7482              0
            966            966        26.0982              0
            987            987        26.4483              0
           1008           1008        26.7983              0
           1029           1029        27.1484              0
           1050           1050        27.4984              0
           1071           1071        27.8485              0
           1092           1092        28.1985              0
           1113           1113        28.5485              0
           1134           1134        28.8986              0
           1155           1155        29.2486              0
           1176           1176        29.5986              0
           1197           1197        29.9487              0
           1218           1218        30.2987              0
           1239           1239        30.6488              0
           1260           1260        30.9988              0
           1281           1281        31.3488              0
           1302           1302        31.6988              0
           1323           1323        32.0489              0
           1344           1344        32.3989              0
           1365           1365         32.749              0
           1386           1386         33.099              0
           1407           1407         33.449              0
           1428           1428        33.7991              0
           1449           1449        34.1491              0
           1470           1470        34.4992              0
           1491           1491        34.8492              0
           1512           1512        35.1992              0
           1533           1533        35.5493              0
           1554           1554        35.8993              0
           1575           1575        36.2494              0
           1596           1596        36.5994              0
           1617           1617        36.9494              0
           1638           1638        37.2995              0
           1659           1659        37.6495              0
           1680           1680        37.9996              0
           1701           1701        38.3496              0
           1722           1722        38.6997              0
           1743           1743        39.0497              0
           1764           1764        39.3997              0
           1785           1785        39.7498              0
           1806           1806        40.0998              0
           1827           1827        40.4499              0
           1848           1848        40.7999              0
           1869           1869          41.15              0
           1890           1890           41.5              0
           1911           1911        41.8501              0
           1932           1932        42.2001              0
           1953           1953        42.5502              0
           1974           1974        42.9002              0
           1995           1995        43.2503              0
           2016           2016        43.6003              0
           2037           2037        43.9503              0
           2058           2058        44.3004              0
           2079           2079        44.6505              0
           2100           2100        45.0005              0
           2121           2121        45.3506              0
           2142           2142        45.7006              0
           2163           2163        46.0507              0
           2184           2184        46.4007              0
           2205           2205        46.7508              0
           2226           2226        47.1009              0
           2247           2247        47.4509              0
           2268           2268         47.801              0
           2289           2289         48.151              0
           2310           2310        48.5011              0
           2331           2331        48.8512              0
           2352           2352        49.2012              0
           2373           2373        49.5513              0
           2394           2394        49.9014              0
           2415           2415        50.2514              0
           2436           2436        50.6015              0
           2457           2457        50.9515              0
           2478           2478        51.3016              0
           2499           2499        51.6517              0
           2520           2520        52.0018              0
           2541           2541        52.3518              0
           2562           2562        52.7019              0
           2583           2583        53.0519              0
           2604           2604         53.402              0
           2625           2625        53.7521              0
           2646           2646        54.1021              0
           2667           2667        54.4522              0
           2688           2688        54.8023              0
           2709           2709        55.1523              0
           2730           2730        55.5024              0
           2751           2751        55.8525              0
           2772           2772        56.2026              0
           2793           2793        56.5526              0
           2814           2814        56.9027              0
           2835           2835        57.2528              0
           2856           2856        57.6028              0
           2877           2877        57.9529              0
           2898           2898         58.303              0
           2919           2919         58.653              0
           2940           2940        59.0031              0
           2961           2961        59.3532              0
           2982           2982        59.7033              0
           3003           3003        60.0534     0.00023216
           3024           3024        60.4034    0.000324018
           3045           3045        60.7535     0.00068336
           3066           3066        61.1036    0.000558756
           3087           3087        61.4537    0.000977963
           3108           3108        61.8037    0.000975773
           3129           3129        62.1538     0.00147621
           3150           3150         62.504     0.00228784
           3171           3171         62.854     0.00295114
           3192           3192        63.2041     0.00304482
           3213           3213        63.5542     0.00346705
           3234           3234        63.9043     0.00373245
           3255           3255        64.2544     0.00413738
           3276           3276        64.6045     0.00444164
           3297           3297        64.9546     0.00438153
           3318           3318        65.3046     0.00460202
           3339           3339        65.6547     0.00512718
           3360           3360        66.0048     0.00533178
           3381           3381        66.3549     0.00609932
           3402           3402         66.705      0.0064183
           3423           3423        67.0551      0.0068045
           3444           3444        67.4052      0.0066582
           3465           3465        67.7553     0.00739369
           3486           3486        68.1054     0.00813741
           3507           3507        68.4555      0.0081013
           3528           3528        68.8056       0.009441
           3549           3549        69.1557     0.00985764
           3570           3570        69.5058      0.0105038
           3591           3591        69.8559      0.0108612
           3612           3612         70.206      0.0116267
           3633           3633        70.5561      0.0118013
           3654           3654        70.9063       0.012775
           3675           3675        71.2564      0.0134655
           3696           3696        71.6064      0.0136206
           3717           3717        71.9566      0.0155849
           3738           3738        72.3067       0.016459
           3759           3759        72.6568      0.0170393
           3780           3780         73.007      0.0186207
           3801           3801        73.3571      0.0185996
           3822           3822        73.7072      0.0202246
           3843           3843        74.0574      0.0215149
           3864           3864        74.4075      0.0221994
           3885           3885        74.7576      0.0242156
           3906           3906        75.1077      0.0246091
           3927           3927        75.4579      0.0262725
           3948           3948        75.8081       0.027622
           3969           3969        76.1582      0.0292473
           3990           3990        76.5083      0.0299617
           4011           4011        76.8585      0.0311717
           4032           4032        77.2086      0.0331392
           4053           4053        77.5588      0.0339932
           4074           4074         77.909      0.0364404
           4095           4095        78.2591      0.0376856
           4116           4116        78.6093      0.0397374
           4137           4137        78.9594      0.0412834
           4158           4158        79.3096       0.043189
           4179           4179        79.6598      0.0451117
           4200           4200        80.0099      0.0470697
           4221           4221        80.3601      0.0498594
           4242           4242        80.7103      0.0517212
           4263           4263        81.0605      0.0542913
           4284           4284        81.4107      0.0564185
           4305           4305        81.7609      0.0590315
           4326           4326        82.1111      0.0620263
           4347           4347        82.4613      0.0648903
           4368           4368        82.8116      0.0677619
           4389           4389        83.1618      0.0704063
           4410           4410         83.512      0.0730112
           4431           4431        83.8622       0.076908
           4452           4452        84.2125      0.0799727
           4473           4473        84.5627      0.0832468
           4494           4494        84.9129       0.086783
           4515           4515        85.2632      0.0907871
           4536           4536        85.6135      0.0949129
           4557           4557        85.9638      0.0995357
           4578           4578         86.314       0.102985
           4599           4599        86.6643        0.10791
           4620           4620        87.0146       0.112403
           4641           4641        87.3649       0.116814
           4662           4662        87.7152       0.121426
           4683           4683        88.0656       0.126809
           4704           4704        88.4159       0.131488
           4725           4725        88.7662       0.137432
           4746           4746        89.1165       0.142955
           4767           4767        89.4669       0.148658
           4788           4788        89.8173       0.154542
           4809           4809        90.1676       0.160725
           4830           4830         90.518       0.167298
           4851           4851        90.8684       0.173891
           4872           4872        91.2188       0.181033
           4893           4893        91.5692       0.187779
           4914           4914        91.9197       0.195937
           4935           4935        92.2701       0.204055
           4956           4956        92.6206       0.212447
           4977           4977        92.9711       0.220633
           4998           4998        93.3215         0.2289
           5019           5019         93.672       0.237638
           5040           5040        94.0226       0.247628
           5061           5061        94.3731        0.25722
           5082           5082        94.7236       0.266222
           5103           5103        95.0742       0.277184
           5124           5124        95.4248       0.287782
           5145           5145        95.7754       0.299403
           5166           5166         96.126       0.310963
           5187           5187        96.4766       0.322271
           5208           5208        96.8273       0.334416
           5229           5229        97.1779       0.347347
           5250           5250        97.5286       0.360417
           5271           5271        97.8793       0.374442
           5292           5292        98.2301       0.388613
           5313           5313        98.5808       0.402801
           5334           5334        98.9316       0.417567
           5355           5355        99.2824       0.433898
           5376           5376        99.6332       0.449489
           5397           5397         99.984       0.465429
           5418           5418        100.335          0.483
           5439           5439        100.686       0.500151
           5460           5460        101.037       0.518787
           5481           5481        101.388        0.53716
           5502           5502        101.739       0.556778
           5523           5523         102.09       0.575986
           5544           5544        102.441       0.596081
           5565           5565        102.792       0.617193
           5586           5586        103.143       0.637973
           5607           5607        103.494       0.659066
           5628           5628        103.845       0.682052
           5649           5649        104.196       0.704413
           5670           5670        104.547       0.727393
           5691           5691        104.898       0.751364
           5712           5712         105.25       0.774867
           5733           5733        105.601       0.799389
           5754           5754        105.952       0.823542
           5775           5775        106.303       0.848975
           5796           5796        106.655       0.873858
           5817           5817        107.006       0.899446
           5838           5838        107.357       0.925387
           5859           5859        107.708       0.950835
           5880           5880         108.06       0.977754
           5901           5901        108.411        1.00284
           5922           5922        108.762        1.02937
           5943           5943        109.113        1.05429
           5964           5964        109.465        1.07989
           5985           5985        109.816        1.10494
           6006           6006        110.167         1.1297
           6027           6027        110.518        1.15437
           6048           6048         110.87        1.17697
           6069           6069        111.221        1.20067
           6090           6090        111.572        1.22276
           6111           6111        111.923        1.24413
           6132           6132        112.274        1.26438
           6153           6153        112.625        1.28356
           6174           6174        112.976        1.30267
           6195           6195        113.327        1.31959
           6216           6216        113.678        1.33526
           6237           6237        114.029        1.34996
           6258           6258        114.379        1.36281
           6279           6279         114.73         1.3752
           6300           6300        115.081        1.38564
           6321           6321        115.431        1.39398
           6342           6342        115.782        1.40119
           6363           6363        116.132        1.40654
           6384           6384        116.482         1.4119
           6405           6405        116.832        1.41319
           6426           6426        117.183        1.41407
           6447           6447        117.533        1.41367
           6468           6468        117.883        1.41247
           6489           6489        118.233        1.40862
           6510           6510        118.583        1.40353
           6531           6531        118.933        1.39742
           6552           6552        119.282        1.38939
           6573           6573        119.632        1.38084
           6594           6594        119.982        1.37067
           6615           6615        120.331         1.3596
           6636           6636        120.681        1.34733
           6657           6657         121.03        1.33336
           6678           6678         121.38        1.31996
           6699           6699        121.729        1.30571
           6720           6720        122.079        1.28939
           6741           6741        122.428        1.27269
           6762           6762        122.778        1.25633
           6783           6783        123.127        1.23851
           6804           6804        123.476        1.22068
