          Index              t             Ts          Value
                           [s]           [°C]           [mW]
              0              0       -69.9993              0
              6              6       -69.5042              0
             12             12       -69.0107              0
             18             18        -68.512              0
             24             24       -68.0123              0
             30             30       -67.5124              0
             36             36       -67.0125              0
             42             42       -66.5126              0
             48             48       -66.0126              0
             54             54       -65.5127              0
             60             60       -65.0128              0
             66             66       -64.5128              0
             72             72       -64.0129              0
             78             78        -63.513              0
             84             84       -63.0131              0
             90             90       -62.5131              0
             96             96       -62.0132              0
            102            102       -61.5133              0
            108            108       -61.0134              0
            114            114       -60.5135              0
            120            120       -60.0135              0
            126            126       -59.5136              0
            132            132       -59.0137              0
            138            138       -58.5138              0
            144            144       -58.0139              0
            150            150       -57.5139              0
            156            156        -57.014              0
            162            162       -56.5141              0
            168            168       -56.0142              0
            174            174       -55.5143              0
            180            180       -55.0144              0
            186            186       -54.5145              0
            192            192       -54.0145              0
            198            198       -53.5146              0
            204            204       -53.0147              0
            210            210       -52.5148              0
            216            216       -52.0149              0
            222            222        -51.515              0
            228            228       -51.0151              0
            234            234       -50.5152              0
            240            240       -50.0153              0
            246            246       -49.5154              0
            252            252       -49.0155              0
            258            258       -48.5156              0
            264            264       -48.0157              0
            270            270       -47.5158              0
            276            276       -47.0159              0
            282            282       -46.5161              0
            288            288       -46.0162              0
            294            294       -45.5163              0
            300            300       -45.0165              0
            306            306       -44.5167              0
            312            312       -44.0169              0
            318            318       -43.5171              0
            324            324       -43.0174              0
            330            330       -42.5176              0
            336            336       -42.0179              0
            342            342       -41.5183              0
            348            348       -41.0187              0
            354            354       -40.5192              0
            360            360       -40.0198              0
            366            366       -39.5205              0
            372            372       -39.0213              0
            378            378       -38.5223              0
            384            384       -38.0234              0
            390            390       -37.5247              0
            396            396       -37.0261              0
            402            402       -36.5276              0
            408            408       -36.0289              0
            414            414         -35.53              0
            420            420       -35.0307              0
            426            426       -34.5309              0
            432            432       -34.0307              0
            438            438       -33.5303              0
            444            444       -33.0299              0
            450            450       -32.5296              0
            456            456       -32.0294              0
            462            462       -31.5294              0
            468            468       -31.0293              0
            474            474       -30.5294              0
            480            480       -30.0294              0
            486            486       -29.5295              0
            492            492       -29.0296              0
            498            498       -28.5297              0
            504            504       -28.0298              0
            510            510       -27.5299              0
            516            516         -27.03              0
            522            522       -26.5301              0
            528            528       -26.0302              0
            534            534       -25.5303              0
            540            540       -25.0304              0
            546            546       -24.5305              0
            552            552       -24.0306              0
            558            558       -23.5308              0
            564            564       -23.0309              0
            570            570        -22.531              0
            576            576       -22.0311              0
            582            582       -21.5312              0
            588            588       -21.0313              0
            594            594       -20.5314              0
            600            600       -20.0316              0
            606            606       -19.5317              0
            612            612       -19.0318              0
            618            618       -18.5319              0
            624            624        -18.032              0
            630            630       -17.5322              0
            636            636       -17.0323              0
            642            642       -16.5324              0
            648            648       -16.0325              0
            654            654       -15.5326              0
            660            660       -15.0327              0
            666            666       -14.5328              0
            672            672       -14.0329              0
            678            678        -13.533              0
            684            684       -13.0332              0
            690            690       -12.5332              0
            696            696       -12.0333              0
            702            702       -11.5335              0
            708            708       -11.0336              0
            714            714       -10.5337              0
            720            720       -10.0338              0
            726            726       -9.53392              0
            732            732       -9.03404              0
            738            738       -8.53413              0
            744            744       -8.03426              0
            750            750       -7.53435              0
            756            756       -7.03446              0
            762            762        -6.5346              0
            768            768       -6.03469              0
            774            774        -5.5348              0
            780            780       -5.03493              0
            786            786       -4.53505              0
            792            792       -4.03516              0
            798            798       -3.53527              0
            804            804       -3.03538              0
            810            810        -2.5355              0
            816            816       -2.03561              0
            822            822       -1.53571              0
            828            828       -1.03582              0
            834            834      -0.535947              0
            840            840     -0.0360914              0
            846            846       0.463779              0
            852            852       0.963665              0
            858            858        1.46355              0
            864            864        1.96343              0
            870            870        2.46331              0
            876            876        2.96319              0
            882            882        3.46306              0
            888            888        3.96292              0
            894            894         4.4628              0
            900            900        4.96267              0
            906            906        5.46255              0
            912            912        5.96243              0
            918            918        6.46233              0
            924            924        6.96222              0
            930            930        7.46206              0
            936            936        7.96192              0
            942            942        8.46177              0
            948            948        8.96162              0
            954            954        9.46151              0
            960            960         9.9614              0
            966            966        10.4613              0
            972            972        10.9612              0
            978            978         11.461              0
            984            984        11.9609              0
            990            990        12.4608              0
            996            996        12.9606              0
           1002           1002        13.4605              0
           1008           1008        13.9603              0
           1014           1014        14.4602              0
           1020           1020        14.9601              0
           1026           1026          15.46              0
           1032           1032        15.9599              0
           1038           1038        16.4597              0
           1044           1044        16.9596              0
           1050           1050        17.4594              0
           1056           1056        17.9593              0
           1062           1062        18.4592              0
           1068           1068         18.959              0
           1074           1074        19.4589              0
           1080           1080        19.9588              0
           1086           1086        20.4586              0
           1092           1092        20.9585              0
           1098           1098        21.4583              0
           1104           1104        21.9582              0
           1110           1110        22.4581              0
           1116           1116        22.9579              0
           1122           1122        23.4578              0
           1128           1128        23.9576              0
           1134           1134        24.4575              0
           1140           1140        24.9574              0
           1146           1146        25.4572              0
           1152           1152        25.9571              0
           1158           1158        26.4569              0
           1164           1164        26.9568              0
           1170           1170        27.4567              0
           1176           1176        27.9565              0
           1182           1182        28.4564              0
           1188           1188        28.9563              0
           1194           1194        29.4561              0
           1200           1200         29.956              0
           1206           1206        30.4558              0
           1212           1212        30.9557              0
           1218           1218        31.4556              0
           1224           1224        31.9554              0
           1230           1230        32.4553              0
           1236           1236        32.9552              0
           1242           1242        33.4551              0
           1248           1248        33.9549              0
           1254           1254        34.4547              0
           1260           1260        34.9546              0
           1266           1266        35.4545              0
           1272           1272        35.9544              0
           1278           1278        36.4542              0
           1284           1284        36.9541              0
           1290           1290         37.454              0
           1296           1296        37.9538              0
           1302           1302        38.4537              0
           1308           1308        38.9536              0
           1314           1314        39.4535              0
           1320           1320        39.9533              0
           1326           1326        40.4532              0
           1332           1332        40.9531              0
           1338           1338        41.4529              0
           1344           1344        41.9528              0
           1350           1350        42.4527              0
           1356           1356        42.9526              0
           1362           1362        43.4524              0
           1368           1368        43.9523              0
           1374           1374        44.4521              0
           1380           1380         44.952              0
           1386           1386        45.4519              0
           1392           1392        45.9518              0
           1398           1398        46.4517              0
           1404           1404        46.9515              0
           1410           1410        47.4514              0
           1416           1416        47.9513              0
           1422           1422        48.4512              0
           1428           1428         48.951              0
           1434           1434        49.4509              0
           1440           1440        49.9508              0
           1446           1446        50.4506              0
           1452           1452        50.9505              0
           1458           1458        51.4504              0
           1464           1464        51.9503              0
           1470           1470        52.4502              0
           1476           1476        52.9501              0
           1482           1482          53.45              0
           1488           1488        53.9499              0
           1494           1494        54.4497              0
           1500           1500        54.9496              0
           1506           1506        55.4496              0
           1512           1512        55.9495              0
           1518           1518        56.4494              0
           1524           1524        56.9493              0
           1530           1530        57.4492              0
           1536           1536        57.9491              0
           1542           1542         58.449              0
           1548           1548        58.9489              0
           1554           1554        59.4488              0
           1560           1560        59.9487              0
           1566           1566        60.4487              0
           1572           1572        60.9486              0
           1578           1578        61.4485              0
           1584           1584        61.9484              0
           1590           1590        62.4483              0
           1596           1596        62.9483              0
           1602           1602        63.4482              0
           1608           1608        63.9482              0
           1614           1614        64.4482              0
           1620           1620        64.9482              0
           1626           1626        65.4481              0
           1632           1632         65.948              0
           1638           1638         66.448              0
           1644           1644         66.948              0
           1650           1650         67.448              0
           1656           1656         67.948              0
           1662           1662        68.4479              0
           1668           1668        68.9479              0
           1674           1674        69.4479              0
           1680           1680        69.9479              0
           1686           1686        70.4479              0
           1692           1692        70.9479              0
           1698           1698        71.4479              0
           1704           1704        71.9479              0
           1710           1710        72.4479              0
           1716           1716        72.9479              0
           1722           1722         73.448              0
           1728           1728         73.948              0
           1734           1734        74.4481              0
           1740           1740        74.9481              0
           1746           1746        75.4481              0
           1752           1752        75.9482              0
           1758           1758        76.4482              0
           1764           1764        76.9483              0
           1770           1770        77.4484              0
           1776           1776        77.9484              0
           1782           1782        78.4485              0
           1788           1788        78.9486              0
           1794           1794        79.4487              0
           1800           1800        79.9488  -1.07288e-006
           1806           1806        80.4489     9.799e-005
           1812           1812         80.949   -0.000561833
           1818           1818        81.4491     -0.0012188
           1824           1824        81.9492    -0.00179315
           1830           1830        82.4494    -0.00209892
           1836           1836        82.9495    -0.00220728
           1842           1842        83.4497    -0.00250649
           1848           1848        83.9498     -0.0028832
           1854           1854          84.45    -0.00375485
           1860           1860        84.9502    -0.00290942
           1866           1866        85.4504     -0.0023191
           1872           1872        85.9506    -0.00231373
           1878           1878        86.4507    -0.00276494
           1884           1884         86.951    -0.00199199
           1890           1890        87.4512    -0.00160658
           1896           1896        87.9514    -0.00182343
           1902           1902        88.4516     -0.0018152
           1908           1908        88.9519    -0.00100887
           1914           1914        89.4521   -0.000131249
           1920           1920        89.9524   9.87053e-005
           1926           1926        90.4526     0.00113797
           1932           1932        90.9529     0.00233543
           1938           1938        91.4532     0.00312626
           1944           1944        91.9535     0.00407338
