                                                                09.04.2015 10:01
________________________________________________________________________________



Curve Name:
  PUL10 - minus baseline - 2deg per min, 6.82mg, 09.04.2015 10:01:19
  Performed 07.04.2015 19:03:11
Curve Values:
          Index              t             Ts          Value
                           [s]           [°C]           [mW]
              0              0        9.99434              0
             11             11        10.3519              0
             22             22        10.7189              0
             33             33         11.086              0
             44             44         11.453              0
             55             55          11.82              0
             66             66        12.1869              0
             77             77        12.5538              0
             88             88        12.9207              0
             99             99        13.2877              0
            110            110        13.6546              0
            121            121        14.0215              0
            132            132        14.3883              0
            143            143        14.7552              0
            154            154        15.1221              0
            165            165        15.4889              0
            176            176        15.8558              0
            187            187        16.2226              0
            198            198        16.5894              0
            209            209        16.9563              0
            220            220        17.3231              0
            231            231        17.6899              0
            242            242        18.0567              0
            253            253        18.4235              0
            264            264        18.7903              0
            275            275         19.157              0
            286            286        19.5238              0
            297            297        19.8906              0
            308            308        20.2574              0
            319            319        20.6242              0
            330            330        20.9909              0
            341            341        21.3577              0
            352            352        21.7245              0
            363            363        22.0912              0
            374            374         22.458              0
            385            385        22.8247              0
            396            396        23.1915              0
            407            407        23.5582              0
            418            418         23.925              0
            429            429        24.2917              0
            440            440        24.6584              0
            451            451        25.0252              0
            462            462        25.3919              0
            473            473        25.7586              0
            484            484        26.1254              0
            495            495        26.4921              0
            506            506        26.8589              0
            517            517        27.2256              0
            528            528        27.5923              0
            539            539        27.9591              0
            550            550        28.3258              0
            561            561        28.6925              0
            572            572        29.0592              0
            583            583        29.4259              0
            594            594        29.7927              0
            605            605        30.1594              0
            616            616        30.5261              0
            627            627        30.8929              0
            638            638        31.2596              0
            649            649        31.6263              0
            660            660         31.993              0
            671            671        32.3597              0
            682            682        32.7264              0
            693            693        33.0931              0
            704            704        33.4599              0
            715            715        33.8265              0
            726            726        34.1933              0
            737            737          34.56              0
            748            748        34.9267              0
            759            759        35.2934              0
            770            770        35.6601              0
            781            781        36.0268              0
            792            792        36.3936              0
            803            803        36.7602              0
            814            814         37.127              0
            825            825        37.4937              0
            836            836        37.8604              0
            847            847        38.2271              0
            858            858        38.5938              0
            869            869        38.9605              0
            880            880        39.3272              0
            891            891        39.6939              0
            902            902        40.0606              0
            913            913        40.4273              0
            924            924         40.794              0
            935            935        41.1607              0
            946            946        41.5274              0
            957            957        41.8941              0
            968            968        42.2608              0
            979            979        42.6275              0
            990            990        42.9942              0
           1001           1001        43.3609              0
           1012           1012        43.7276              0
           1023           1023        44.0943              0
           1034           1034         44.461              0
           1045           1045        44.8277              0
           1056           1056        45.1944              0
           1067           1067        45.5611              0
           1078           1078        45.9278              0
           1089           1089        46.2945              0
           1100           1100        46.6613              0
           1111           1111         47.028              0
           1122           1122        47.3946              0
           1133           1133        47.7614              0
           1144           1144         48.128              0
           1155           1155        48.4948              0
           1166           1166        48.8615              0
           1177           1177        49.2282              0
           1188           1188        49.5949              0
           1199           1199        49.9616              0
           1210           1210        50.3283              0
           1221           1221         50.695              0
           1232           1232        51.0617              0
           1243           1243        51.4284              0
           1254           1254        51.7951              0
           1265           1265        52.1618              0
           1276           1276        52.5285              0
           1287           1287        52.8952              0
           1298           1298         53.262              0
           1309           1309        53.6287              0
           1320           1320        53.9954              0
           1331           1331        54.3621              0
           1342           1342        54.7288              0
           1353           1353        55.0955              0
           1364           1364        55.4622              0
           1375           1375        55.8289              0
           1386           1386        56.1956              0
           1397           1397        56.5623              0
           1408           1408        56.9291              0
           1419           1419        57.2958              0
           1430           1430        57.6625              0
           1441           1441        58.0292              0
           1452           1452         58.396              0
           1463           1463        58.7627              0
           1474           1474        59.1294              0
           1485           1485        59.4961              0
           1496           1496        59.8628              0
           1507           1507        60.2295              0
           1518           1518        60.5963              0
           1529           1529         60.963              0
           1540           1540        61.3297              0
           1551           1551        61.6965              0
           1562           1562        62.0631              0
           1573           1573        62.4299              0
           1584           1584        62.7966              0
           1595           1595        63.1633              0
           1606           1606        63.5301              0
           1617           1617        63.8968              0
           1628           1628        64.2635              0
           1639           1639        64.6302              0
           1650           1650         64.997              0
           1661           1661        65.3637              0
           1672           1672        65.7304              0
           1683           1683        66.0972              0
           1694           1694        66.4639              0
           1705           1705        66.8306              0
           1716           1716        67.1974              0
           1727           1727        67.5641              0
           1738           1738        67.9309              0
           1749           1749        68.2976              0
           1760           1760        68.6644              0
           1771           1771        69.0311              0
           1782           1782        69.3978              0
           1793           1793        69.7646              0
           1804           1804        70.1313   -0.000111207
           1815           1815         70.498    0.000258721
           1826           1826        70.8648     0.00127333
           1837           1837        71.2316     0.00192005
           1848           1848        71.5983     0.00183797
           1859           1859         71.965     0.00238236
           1870           1870        72.3318      0.0030732
           1881           1881        72.6986     0.00379516
           1892           1892        73.0653     0.00390868
           1903           1903        73.4321     0.00449299
           1914           1914        73.7988     0.00554714
           1925           1925        74.1656     0.00663633
           1936           1936        74.5324     0.00711382
           1947           1947        74.8991     0.00660611
           1958           1958        75.2658      0.0072872
           1969           1969        75.6326     0.00847038
           1980           1980        75.9994     0.00883443
           1991           1991        76.3662      0.0101353
           2002           2002        76.7329      0.0109459
           2013           2013        77.0997      0.0109102
           2024           2024        77.4665      0.0120148
           2035           2035        77.8333      0.0132444
           2046           2046        78.2001      0.0145206
           2057           2057        78.5668      0.0150496
           2068           2068        78.9336      0.0157794
           2079           2079        79.3004      0.0173375
           2090           2090        79.6672      0.0181399
           2101           2101         80.034      0.0187633
           2112           2112        80.4007      0.0194892
           2123           2123        80.7675      0.0203771
           2134           2134        81.1343      0.0222389
           2145           2145        81.5012      0.0236044
           2156           2156        81.8679      0.0240765
           2167           2167        82.2347      0.0254913
           2178           2178        82.6015      0.0262046
           2189           2189        82.9683      0.0273935
           2200           2200        83.3352      0.0295286
           2211           2211        83.7019        0.02982
           2222           2222        84.0688      0.0318337
           2233           2233        84.4356      0.0337008
           2244           2244        84.8024      0.0348492
           2255           2255        85.1692      0.0362539
           2266           2266         85.536      0.0380271
           2277           2277        85.9029      0.0407035
           2288           2288        86.2697      0.0419031
           2299           2299        86.6366      0.0436901
           2310           2310        87.0034      0.0456708
           2321           2321        87.3703      0.0481958
           2332           2332        87.7371       0.049727
           2343           2343         88.104      0.0523958
           2354           2354        88.4708      0.0539803
           2365           2365        88.8377      0.0563177
           2376           2376        89.2045      0.0586466
           2387           2387        89.5714      0.0617453
           2398           2398        89.9383      0.0639661
           2409           2409        90.3052      0.0670848
           2420           2420        90.6721      0.0697305
           2431           2431         91.039      0.0729256
           2442           2442        91.4059      0.0762767
           2453           2453        91.7728      0.0788827
           2464           2464        92.1397      0.0824891
           2475           2475        92.5066      0.0862858
           2486           2486        92.8735      0.0898882
           2497           2497        93.2405      0.0940327
           2508           2508        93.6075      0.0984868
           2519           2519        93.9744       0.101841
           2530           2530        94.3414       0.106656
           2541           2541        94.7083       0.110955
           2552           2552        95.0753       0.115775
           2563           2563        95.4423       0.120913
           2574           2574        95.8093       0.126453
           2585           2585        96.1763       0.131587
           2596           2596        96.5433       0.136814
           2607           2607        96.9103       0.142367
           2618           2618        97.2774       0.148889
           2629           2629        97.6445       0.155698
           2640           2640        98.0115       0.160667
           2651           2651        98.3786       0.167853
           2662           2662        98.7456       0.174644
           2673           2673        99.1127       0.181757
           2684           2684        99.4799       0.189404
           2695           2695         99.847        0.19784
           2706           2706        100.214       0.205901
           2717           2717        100.581       0.213837
           2728           2728        100.948        0.22257
           2739           2739        101.316       0.231741
           2750           2750        101.683       0.241292
           2761           2761         102.05       0.251127
           2772           2772        102.417       0.261094
           2783           2783        102.785       0.271408
           2794           2794        103.152       0.282675
           2805           2805        103.519       0.293407
           2816           2816        103.886       0.304998
           2827           2827        104.254       0.316813
           2838           2838        104.621       0.329518
           2849           2849        104.988       0.343134
           2860           2860        105.356       0.355996
           2871           2871        105.723       0.370402
           2882           2882        106.091       0.384582
           2893           2893        106.458       0.399223
           2904           2904        106.826       0.414825
           2915           2915        107.193       0.430217
           2926           2926        107.561       0.447422
           2937           2937        107.928       0.464916
           2948           2948        108.296        0.48211
           2959           2959        108.663       0.500631
           2970           2970        109.031       0.520052
           2981           2981        109.399       0.539834
           2992           2992        109.766       0.560392
           3003           3003        110.134        0.58117
           3014           3014        110.502       0.603123
           3025           3025         110.87       0.625414
           3036           3036        111.238       0.648717
           3047           3047        111.606        0.67285
           3058           3058        111.973       0.697956
           3069           3069        112.341       0.723994
           3080           3080        112.709       0.750114
           3091           3091        113.077       0.777998
           3102           3102        113.446       0.806165
           3113           3113        113.814       0.834954
           3124           3124        114.182       0.865886
           3135           3135         114.55       0.896826
           3146           3146        114.918       0.928028
           3157           3157        115.287       0.961153
           3168           3168        115.655       0.995515
           3179           3179        116.023        1.02943
           3190           3190        116.392        1.06515
           3201           3201         116.76        1.10222
           3212           3212        117.129        1.13944
           3223           3223        117.497        1.17859
           3234           3234        117.866         1.2179
           3245           3245        118.235        1.25757
           3256           3256        118.603        1.29841
           3267           3267        118.972        1.34033
           3278           3278        119.341        1.38453
           3289           3289         119.71        1.42825
           3300           3300        120.078        1.47162
           3311           3311        120.447        1.51693
           3322           3322        120.816        1.56141
           3333           3333        121.185        1.60735
           3344           3344        121.554        1.65354
           3355           3355        121.923        1.70055
           3366           3366        122.292        1.74781
           3377           3377        122.661        1.79509
           3388           3388         123.03        1.84175
           3399           3399        123.399        1.88838
           3410           3410        123.768        1.93539
           3421           3421        124.137        1.98154
           3432           3432        124.506        2.02731
           3443           3443        124.875         2.0739
           3454           3454        125.243        2.11812
           3465           3465        125.612        2.16156
           3476           3476        125.981        2.20394
           3487           3487         126.35        2.24504
           3498           3498        126.718        2.28521
           3509           3509        127.087        2.32352
           3520           3520        127.455        2.35949
